#;*** IRS Red-Peakup Filter
#;*** RQExTransmission at 2.0 volts USED IN NOMINAL OPERATIONS
#;*** 
#;*** The first column is wavelength in microns.  They second 
#;*** is "RQExT", which is the product of the detector's 
#;*** responsive quantum efficiency (QE times photoconductive 
#;*** gain) and the filter transmission.  That is, if you 
#;*** multiply incident photons/second at some wavelength by 
#;*** RQExT at that wavelength, then you get electrons/second 
#;*** contributed by the incident light at that wavelength. 
#;*** These data represent the same curve that is provided in 
#;*** the SMART software package, and represent a revised 
#;*** (improved) version of the peak-up filter transmission
#;*** curve shown in Figure 7.39 of the Spitzer Observer's 
#;*** Manual (v5.0).
#;***
14.3243	   2.15E-02
14.3640	   -1.32E-02
14.4038	   7.22E-03
14.4440	   3.29E-03
14.4843	   -4.04E-03
14.5249	   -8.52E-03
14.5657	   -4.29E-03
14.6067	   -1.22E-02
14.6480	   -1.24E-02
14.6895	   1.09E-02
14.7312	   6.69E-03
14.7732	   1.09E-02
14.8154	   5.91E-03
14.8578	   4.87E-03
14.9005	   -6.79E-03
14.9435	   6.84E-03
14.9867	   3.35E-03
15.0301	   7.48E-03
15.0738	   1.03E-02
15.1177	   7.28E-03
15.1619	   4.76E-04
15.2064	   4.64E-03
15.2511	   3.71E-03
15.2961	   2.59E-03
15.3414	   4.91E-03
15.3869	   6.74E-03
15.4327	   1.73E-03
15.4787	   2.94E-03
15.5251	   5.04E-03
15.5717	   8.09E-03
15.6186	   6.06E-03
15.6658	   3.44E-03
15.7133	   4.95E-03
15.7610	   -3.50E-03
15.8091	   -8.23E-03
15.8574	   -8.71E-03
15.9061	   -5.80E-04
15.9550	   -1.04E-02
16.0043	   -8.07E-03
16.0538	   -8.27E-03
16.1037	   -6.01E-03
16.1538	   -6.95E-03
16.2043	   4.91E-03
16.2551	   6.13E-03
16.3062	   9.37E-03
16.3577	   7.62E-03
16.4094	   2.79E-03
16.4615	   -1.61E-03
16.5140	   2.07E-03
16.5667	   -1.08E-03
16.6198	   -1.75E-03
16.6733	   -7.53E-04
16.7271	   3.87E-04
16.7812	   -4.31E-03
16.8357	   -7.15E-03
16.8905	   -6.42E-03
16.9457	   -3.98E-03
17.0013	   -6.85E-03
17.0572	   -5.34E-03
17.1135	   -2.63E-03
17.1702	   1.96E-03
17.2272	   3.00E-04
17.2846	   5.41E-03
17.3424	   5.76E-03
17.4006	   9.51E-03
17.4592	   1.51E-02
17.5182	   6.13E-03
17.5776	   8.97E-03
17.6374	   1.21E-02
17.6975	   1.16E-02
17.7582	   1.55E-03
17.8192	   1.28E-02
17.8806	   5.67E-03
17.9425	   1.13E-02
18.0048	   1.70E-02
18.0675	   3.32E-02
18.1307	   5.38E-02
18.1943	   8.80E-02
18.2584	   1.29E-01
18.3229	   2.06E-01
18.3879	   3.24E-01
18.4533	   5.19E-01
18.5192	   7.66E-01
18.5856	   1.09E+00
18.6525	   1.42E+00
18.7198	   1.70E+00
18.7876	   1.88E+00
18.8559	   2.03E+00
18.9248	   2.08E+00
18.9941	   2.15E+00
19.0639	   2.18E+00
19.1343	   2.09E+00
19.2051	   1.99E+00
19.2765	   1.97E+00
19.3485	   2.05E+00
19.4209	   2.07E+00
19.4939	   2.06E+00
19.5675	   2.09E+00
19.6416	   2.18E+00
19.7163	   2.16E+00
19.7916	   2.17E+00
19.8674	   2.12E+00
19.9438	   2.15E+00
20.0208	   2.08E+00
20.0984	   2.06E+00
20.1766	   2.03E+00
20.2554	   2.01E+00
20.3348	   1.99E+00
20.4149	   1.98E+00
20.4956	   1.96E+00
20.5769	   1.93E+00
20.6589	   1.90E+00
20.7416	   1.87E+00
20.8248	   1.85E+00
20.9088	   1.85E+00
20.9935	   1.86E+00
21.0788	   1.88E+00
21.1648	   1.92E+00
21.2516	   1.95E+00
21.3390	   1.97E+00
21.4272	   1.99E+00
21.5161	   2.01E+00
21.6058	   2.01E+00
21.6962	   2.01E+00
21.7873	   2.00E+00
21.8793	   1.99E+00
21.9720	   1.97E+00
22.0655	   1.96E+00
22.1598	   1.94E+00
22.2549	   1.92E+00
22.3508	   1.88E+00
22.4475	   1.84E+00
22.5452	   1.81E+00
22.6436	   1.79E+00
22.7429	   1.77E+00
22.8431	   1.77E+00
22.9442	   1.78E+00
23.0461	   1.78E+00
23.1491	   1.75E+00
23.2528	   1.72E+00
23.3576	   1.68E+00
23.4633	   1.63E+00
23.5700	   1.59E+00
23.6775	   1.58E+00
23.7862	   1.61E+00
23.8958	   1.66E+00
24.0064	   1.71E+00
24.1181	   1.75E+00
24.2308	   1.78E+00
24.3445	   1.78E+00
24.4594	   1.74E+00
24.5753	   1.72E+00
24.6923	   1.67E+00
24.8104	   1.63E+00
24.9298	   1.58E+00
25.0502	   1.54E+00
25.1718	   1.48E+00
25.2946	   1.42E+00
25.4185	   1.35E+00
25.5438	   1.29E+00
25.6702	   1.21E+00
25.7979	   1.14E+00
25.9269	   1.07E+00
26.0572	   1.00E+00
26.1888	   9.38E-01
26.3217	   8.67E-01
26.4560	   8.23E-01
26.5917	   7.77E-01
26.7288	   7.33E-01
26.8673	   6.93E-01
27.0072	   6.62E-01
27.1486	   6.20E-01
27.2915	   5.79E-01
27.4359	   5.38E-01
27.5818	   4.92E-01
27.7293	   4.44E-01
27.8784	   4.03E-01
28.0291	   3.63E-01
28.1814	   3.36E-01
28.3354	   2.98E-01
28.4912	   2.70E-01
28.6485	   2.38E-01
28.8077	   2.14E-01
28.9686	   1.83E-01
29.1313	   1.67E-01
29.2960	   1.49E-01
29.4624	   1.34E-01
29.6308	   1.15E-01
29.8010	   1.01E-01
29.9733	   8.56E-02
30.1475	   6.99E-02
30.3239	   5.64E-02
30.5022	   4.40E-02
30.6828	   2.93E-02
30.8653	   1.78E-02
31.0502	   1.14E-02
31.2372	   7.69E-03
31.4266	   5.53E-03
31.6182	   4.50E-03
31.8122	   3.56E-03
32.0085	   2.52E-03
32.2074	   1.73E-03
32.4086	   1.36E-03
32.6125	   1.34E-03
32.8188	   1.34E-03
33.0279	   1.21E-03
33.2396	   8.47E-04
33.4541	   6.82E-04
33.6713	   5.51E-04
33.8914	   3.99E-04
34.1143	   2.30E-04
34.3403	   1.34E-04
34.5692	   2.73E-05
34.8013	   -4.44E-05
35.0363	   -7.74E-05
